#  f / Hz  #  U / mV

    10         640
    20         630
    30         600
    40         580
    50         570
    60         560
    70         550
    80         530
    90         510
   100         490
   200         370
   300         290
   400         230
   500         190
   600         165
   700         140
   800         125
   900         110
  1000         100
  2000          52
  3000          35
  4000          26
  5000          21
  6000          18
  7000          15.5
  8000          13.5
  9000          12
 10000          11
